wavelength (microns),Re_eps,Im_eps
500.0,1.955,0.00796
250.0,1.957,0.00696
166.7,1.959,0.00862
125.0,1.962,0.0119
100.0,1.967,0.0159
40.0,2.1,0.046
36.36,2.147,0.056
33.33,2.21,0.067
30.77,2.284,0.092
28.57,2.388,0.13
26.67,2.537,0.199
25.0,2.739,0.397
23.81,2.912,0.738
22.73,2.936,1.29
21.74,2.308,2.29
21.28,1.484,2.39
21.05,1.002,2.22
20.83,0.7517,1.86
20.41,0.5777,1.28
20.0,0.6616,0.822
19.61,0.8857,0.524
19.23,1.05,0.415
18.97,1.161,0.377
18.52,1.235,0.341
17.86,1.337,0.298
17.24,1.401,0.264
16.67,1.45,0.235
16.0,1.502,0.202
15.38,1.555,0.182
14.81,1.598,0.168
14.29,1.643,0.157
13.79,1.698,0.157
13.33,1.756,0.177
13.16,1.779,0.192
12.99,1.81,0.227
12.82,1.811,0.275
12.66,1.789,0.314
12.5,1.753,0.343
12.35,1.701,0.341
12.2,1.658,0.323
12.05,1.615,0.267
11.9,1.619,0.204
11.76,1.652,0.152
11.63,1.69,0.116
11.36,1.784,0.0775
11.11,1.869,0.0506
10.81,2.038,0.046
10.53,2.224,0.102
10.26,2.448,0.231
10.0,2.694,0.509
9.756,2.839,0.962
9.524,2.76,1.65
9.302,2.25,2.26
9.174,1.616,2.63
9.091,1.043,2.55
9.009,0.5846,2.27
8.929,0.3705,1.85
8.85,0.3563,1.53
8.772,0.3915,1.32
8.696,0.4309,1.17
8.621,0.4563,1.07
8.547,0.4656,0.978
8.475,0.4746,0.903
8.403,0.473,0.84
8.333,0.46,0.771
8.265,0.453,0.704
8.197,0.4329,0.635
8.13,0.402,0.553
8.065,0.3931,0.446
8.0,0.4113,0.323
7.937,0.4677,0.216
7.874,0.5456,0.132
7.813,0.6232,0.0768
7.752,0.7037,0.0474
7.692,0.7719,0.0372
7.634,0.8213,-5.55112e-17
7.576,0.86,-5.55112e-17
7.519,0.8897,-5.55112e-17
7.463,0.9175,-5.55112e-17
7.407,0.9488,0.0148
7.353,0.9702,-5.55112e-17
7.246,1.014,-1.11022e-16
7.143,1.053,0.0106
7.042,1.084,0.0
6.944,1.107,-1.11022e-16
6.849,1.135,0.0
6.757,1.158,-1.11022e-16
6.667,1.175,0.00716
6.452,1.212,0.00657
6.25,1.239,0.00652
5.882,1.278,0.00594
5.556,1.306,0.00563
5.0,1.342,0.00398
4.545,1.365,0.000256
4.167,1.383,0.000107
3.846,1.395,4.96e-05
3.7067,1.39936,-1.11022e-16
3.5564,1.40418,0.0
3.507,1.40568,-1.11022e-16
3.422,1.40819,0.0
3.3026,1.41155,0.0
3.2668,1.41253,-1.11022e-16
3.2439,1.41314,0.0
2.4374,1.43095,-1.11022e-16
2.32542,1.43292,-1.11022e-16
2.1526,1.43576,0.0
2.0581,1.43722,-1.11022e-16
1.97009,1.43851,-1.11022e-16
1.81307,1.44069,-1.11022e-16
1.70913,1.44205,-1.11022e-16
1.6932,1.44226,-1.11022e-16
1.681,1.44241,1.11022e-16
1.6606,1.44267,1.11022e-16
1.52952,1.44427,-1.11022e-16
1.4695,1.44497,-1.11022e-16
1.39506,1.44584,0.0
1.3622,1.44621,-1.11022e-16
1.12866,1.44888,0.0
1.08297,1.44941,-1.11022e-16
1.01398,1.45025,-2.22045e-16
0.89435,1.45185,1.11022e-16
0.852111,1.45248,-1.11022e-16
0.706519,1.45515,-1.11022e-16
0.667815,1.45608,0.0
0.656272,1.45637,0.0
0.643847,1.45671,-1.11022e-16
0.589262,1.45841,-1.11022e-16
0.587561,1.45847,0.0
0.579065,1.45877,-1.11022e-16
0.576959,1.45885,0.0
0.546074,1.46008,-1.11022e-16
0.508582,1.46187,0.0
0.486133,1.46313,-1.11022e-16
0.467816,1.46429,-1.11022e-16
0.435835,1.46669,-1.11022e-16
0.404656,1.46961,0.0
0.365015,1.47453,-1.11022e-16
0.361051,1.47512,1.11022e-16
0.34662,1.47746,-2.22045e-16
0.340365,1.47858,0.0
0.334148,1.47976,0.0
0.330259,1.48053,-1.11022e-16
0.30215,1.48719,-1.11022e-16
0.296728,1.48873,-1.11022e-16
0.28936,1.49099,-2.22045e-16
0.280347,1.49404,-1.11022e-16
0.275278,1.49592,-1.11022e-16
0.269885,1.49805,-1.11022e-16
0.265204,1.50004,-1.11022e-16
0.248272,1.50841,-1.11022e-16
0.239938,1.51338,-1.11022e-16
0.237833,1.51474,-1.11022e-16
0.230209,1.52009,0.0
0.226747,1.52276,0.0
0.214438,1.53371,-1.11022e-16
0.213856,1.53429,0.0
0.2066,1.543,0.0
0.1984,1.554,0.0
0.1907,1.567,-1.11022e-16
0.1837,1.582,-1.11022e-16
0.1771,1.6,0.0
0.1722,1.616,-1.11022e-16
0.1675,1.633,-1.11022e-16
0.1631,1.653,-1.11022e-16
0.159,1.676,4.7e-06
0.155,1.702,0.00032
0.1531,1.716,0.000122
0.1512,1.73,0.000463
0.1494,1.747,0.0014
0.1476,1.764,0.00317
0.1459,1.783,0.00557
0.1442,1.803,0.00838
0.1425,1.825,0.0109
0.1409,1.85,0.0132
0.1393,1.876,0.0156
0.1378,1.904,0.0189
0.1362,1.935,0.0228
0.1348,1.969,0.0271
0.1333,2.006,0.0339
0.1319,2.047,0.043
0.1305,2.092,0.0561
0.1291,2.14,0.077
0.1278,2.19,0.119
0.1265,2.243,0.168
0.1252,2.292,0.236
0.124,2.33,0.323
0.1228,2.332,0.46
0.1215,2.24,0.715
0.121,2.152,0.81
0.1204,2.048,0.925
0.1198,1.919,1.05
0.1192,1.772,1.13
0.1187,1.645,1.14
0.1181,1.567,1.11
0.117,1.492,0.914
0.1159,1.513,0.725
0.1148,1.587,0.618
0.1137,1.687,0.565
0.1127,1.739,0.569
0.1107,1.766,0.718
0.1088,1.716,0.81
0.1069,1.635,0.859
0.1051,1.554,0.874
0.1033,1.475,0.861
0.1012,1.41,0.824
0.09919,1.383,0.793
0.09724,1.372,0.766
0.09537,1.368,0.747
0.09357,1.371,0.755
0.09184,1.363,0.775
0.09017,1.32,0.795
0.08856,1.265,0.808
0.087,1.225,0.799
0.08551,1.195,0.771
0.08405,1.175,0.739
0.08266,1.168,0.711
0.0813,1.167,0.699
0.07999,1.172,0.696
0.07872,1.178,0.703
0.07749,1.172,0.717
0.0763,1.156,0.737
0.07514,1.137,0.755
0.07402,1.124,0.765
0.07293,1.072,0.768
0.07187,1.03,0.763
0.07085,0.999,0.75
0.06985,0.975,0.731
0.06888,0.957,0.712
0.06701,0.927,0.677
0.06526,0.902,0.645
0.06358,0.879,0.613
0.06199,0.859,0.585
0.06,0.862,0.497
0.05904,0.827,0.53
0.059,0.851,0.482
0.058,0.843,0.47
0.057,0.833,0.45
0.05636,0.797,0.48
0.056,0.829,0.43
0.055,0.822,0.408
0.054,0.817,0.385
0.05391,0.774,0.434
0.053,0.811,0.366
0.052,0.806,0.343
0.05166,0.753,0.375
0.051,0.804,0.322
0.05,0.803,0.3
0.04959,0.733,0.325
0.049,0.804,0.282
0.048,0.808,0.27
0.047,0.813,0.25
0.046,0.817,0.233
0.045,0.822,0.218
0.044,0.827,0.202
0.043,0.833,0.19
0.042,0.839,0.18
0.041,0.845,0.169
0.04,0.851,0.156
0.039,0.858,0.144
0.038,0.866,0.137
0.037,0.87,0.128
0.036,0.877,0.12
0.035,0.882,0.113
0.034,0.888,0.107
0.033,0.895,0.098
0.032,0.901,0.094
0.031,0.907,0.092
0.03,0.913,0.09
0.029,0.9137,0.082
0.028,0.9175,0.075
0.027,0.9207,0.068
0.026,0.9105,0.0726
0.025,0.9164,0.065
0.024,0.9222,0.0578
0.023,0.9271,0.052
0.022,0.9328,0.0462
0.021,0.9386,0.0437
0.02,0.9416,0.0374
0.019,0.9458,0.0335
0.018,0.9509,0.0281
0.017,0.9562,0.0244
0.016,0.9608,0.0226
0.015,0.9634,0.0199
0.0138,0.9747,0.0103
0.0136,0.9761,0.0093
0.0134,0.977,0.0087
0.0132,0.9778,0.0083
0.013,0.9789,0.0076
0.0128,0.9794,0.0076
0.0126,0.9803,0.0073
0.0124,0.9813,0.007
0.0122,0.9823,0.0068
0.012,0.9839,0.0065
0.0118,0.9858,0.0075
0.0116,0.9867,0.0106
0.0114,0.9828,0.0159
0.0112,0.9822,0.0093
0.011,0.9844,0.009
0.0108,0.9848,0.0099
0.0106,0.9841,0.0096
0.0104,0.9851,0.0083
0.0102,0.9865,0.0085
0.01,0.9874,0.0097
0.0098,0.9872,0.0111
0.0096,0.9868,0.0111
0.0094,0.9858,0.0114
0.0092,0.9854,0.0107
0.009,0.9853,0.0099
0.0088,0.9855,0.0089
0.0086,0.986,0.0081
0.0084,0.9865,0.0076
0.0082,0.9871,0.0073
0.008051,0.9875,0.0073
0.007847,0.9882,0.00699
0.007653,0.9887,0.00662
0.007469,0.9893,0.00619
0.007293,0.9898,0.0058
0.007125,0.99024,0.00544
0.006965,0.99068,0.00511
0.006812,0.99108,0.00482
0.00663,0.99155,0.00447
0.006491,0.9919,0.00421
0.006325,0.99231,0.0039
0.006168,0.99269,0.00363
0.006018,0.99304,0.00337
0.005876,0.99336,0.00314
0.00574,0.99367,0.00292
0.00561,0.99395,0.00272
0.005462,0.99427,0.0025
0.005344,0.99451,0.00234
0.005209,0.99478,0.00216
0.005081,0.99504,0.002
0.004959,0.99527,0.00185
0.004843,0.99549,0.00171
0.004732,0.9957,0.00159
0.004609,0.99592,0.00146
0.004508,0.99609,0.00136
0.004396,0.99629,0.00125
0.00429,0.99646,0.00116
0.004188,0.99663,0.00107
0.004092,0.99678,0.000991
0.003986,0.99695,0.000909
0.003899,0.99708,0.000844
0.003803,0.99722,0.000777
0.003712,0.99735,0.000717
0.003625,0.99747,0.000662
0.003532,0.9976,0.000607
0.003453,0.99771,0.000563
0.003369,0.99782,0.000518
0.003289,0.99792,0.000477
0.003212,0.99802,0.00044
0.003131,0.99812,0.000404
0.003054,0.99821,0.000371
0.002987,0.99828,0.000344
0.00291,0.99837,0.000315
0.002844,0.99845,0.00029
0.002774,0.99852,0.000267
0.002707,0.99859,0.000245
0.002643,0.99866,0.000226
0.002583,0.99872,0.000208
0.00252,0.99878,0.000191
0.00246,0.99884,0.000176
0.002403,0.99889,0.000162
0.002344,0.99894,0.000149
0.002287,0.99899,0.000497
0.002234,0.99904,0.000458
0.002179,0.99909,0.00042
0.002127,0.99913,0.000386
0.002077,0.99917,0.000356
0.002026,0.99921,0.000327
0.001977,0.99925,0.000301
0.001931,0.99928,0.000277
0.001884,0.99932,0.000254
0.001839,0.99935,0.000233
0.001797,0.99938,0.000215
0.001754,0.99941,0.000198
0.00171,0.99944,0.000181
0.001671,0.99946,0.000167
0.001631,0.99949,0.000154
0.001592,0.99951,0.000141
0.001554,0.99954,0.000129
0.001516,0.99956,0.000118
0.001479,0.99958,0.000108
0.001445,0.9996,9.93e-05
0.00141,0.99962,9.12e-05
0.001376,0.99964,8.36e-05
0.001343,0.99965,7.69e-05
0.001312,0.99967,7.06e-05
0.001281,0.99968,6.47e-05
0.00125,0.9997,5.92e-05
0.00122,0.99971,5.42e-05
0.001191,0.99973,4.97e-05
0.001162,0.99974,4.54e-05
0.001134,0.99975,4.16e-05
0.001108,0.99976,3.81e-05
0.001081,0.99978,3.48e-05
0.001055,0.99979,3.19e-05
0.00103,0.9998,2.92e-05
0.001005,0.99981,2.67e-05
0.0009816,0.99981,2.45e-05
0.0009581,0.99982,2.24e-05
0.000935,0.99983,2.04e-05
0.0009129,0.99984,1.87e-05
0.0008906,0.99985,1.71e-05
0.0008694,0.99985,1.56e-05
0.0008492,0.99986,1.43e-05
0.0008287,0.99987,1.31e-05
0.0008087,0.99987,1.19e-05
0.0007897,0.99988,1.09e-05
0.0007705,0.99989,9.94e-06
0.0007523,0.99989,9.08e-06
0.0007345,0.9999,8.3e-06
0.0007166,0.9999,7.56e-06
0.0006997,0.99991,6.9e-06
0.0006831,0.99991,6.3e-06
0.0006665,0.99991,1.94e-05
0.0006508,0.99992,1.78e-05
0.0006351,0.99992,1.64e-05
0.0006199,0.99993,1.5e-05
